energy,intensity
10.376,0.14479742
11.894,0.2561866
12.03,0.2561866
13.251,0.081975622
13.875,2.2611402
14.313,0.25589392
14.441,0.036050738
14.769,2.8880309000000004
14.797,0.53077552
14.965,0.008640811
14.971,0.25424066
14.995,0.09053678
16.75,0.022478810999999998
17.3,0.65192566
17.634,0.069417488
17.672,0.65192566
17.798,0.077318693
17.838,0.11534312000000001
17.87,0.0011386965
18.472,0.032676999
18.621,0.0054375258
83.227,0.7637776
86.102,1.262776
97.469,0.4398607
100.209,0.1444438
