energy,intensity
10.622,0.245683
12.195,0.43286199999999997
12.338,0.432862
13.661,0.1443786
14.235,3.80402
14.746,0.30122299999999996
14.824,0.0629736
15.196,0.902921
15.234,5.13715
15.374,0.01515757
15.409,0.157467
15.444,0.2918075
17.274,0.03897885
17.846,1.168471
18.177,0.0825156
18.235,1.168471
18.353,0.0898827
18.411,0.2123298
18.448,0.00202309
19.056,0.03910481
19.215,0.00703939
85.432,1.53236
88.471,2.50796
100.119,0.87786
102.948,0.288176
