energy,intensity
9.184,0.07507
10.449,0.14571
10.551,0.14571
11.349,0.037939
12.142,1.2837
12.307,0.040170000000000004
12.611,0.01892
12.614,1.3721999999999999
12.795,0.04462
12.888,0.28521
13.015,0.004169
13.026,0.03814
14.307,0.009758
14.765,0.29375999999999997
15.053,0.29375999999999997
15.098,0.01049
15.179,0.03917
15.191,0.00035559999999999997
15.216,0.012825999999999999
15.766,0.004595
15.86,0.00015795000000000002
72.805,2.561
74.97,4.298
84.986,1.4625
87.301,0.4421
